Wavelength[nm],ADC
207.425,5419
207.805,5063
208.185,5460
208.565,5785
208.945,5621
209.325,5508
209.705,5401
210.085,5239
210.465,5055
210.845,6088
211.226,5798
211.606,5945
211.986,6005
212.367,5917
212.747,6356
213.128,6302
213.508,6782
213.889,6386
214.270,6376
214.650,6645
215.031,7251
215.412,7109
215.793,6667
216.174,6898
216.555,6911
216.936,7322
217.317,6786
217.699,6804
218.080,7164
218.461,7471
218.843,7703
219.224,7445
219.605,7543
219.987,7087
220.369,7632
220.750,7893
221.132,7916
221.514,7467
221.896,7160
222.277,7315
222.659,7818
223.041,8006
223.423,7378
223.805,8791
224.188,8071
224.570,7743
224.952,7003
225.334,7541
225.717,8238
226.099,7563
226.482,7691
226.864,7663
227.247,8383
227.629,8537
228.012,7799
228.395,8017
228.778,8631
229.161,7932
229.543,7797
229.926,7175
230.309,7932
230.693,7588
231.076,7399
231.459,7406
231.842,8276
232.225,8198
232.609,7551
232.992,7523
233.376,7860
233.759,7760
234.143,8018
234.526,8452
234.910,8217
235.294,8172
235.678,7616
236.062,8367
236.445,8310
236.829,8142
237.213,7792
237.597,7834
237.982,8410
238.366,7902
238.750,7799
239.134,7453
239.519,7966
239.903,8542
240.288,7382
240.672,7433
241.057,8412
241.441,8395
241.826,9066
242.211,7836
242.595,8624
242.980,8941
243.365,8803
243.750,8643
244.135,7501
244.520,7830
244.905,7636
245.290,8153
245.676,8171
246.061,7706
246.446,8000
246.832,7424
247.217,8309
247.602,7892
247.988,8702
248.374,7762
248.759,7750
249.145,8258
249.531,8118
249.917,8144
250.302,8142
250.688,7920
251.074,8024
251.460,8237
251.846,8295
252.233,7694
252.619,7796
253.005,7560
253.391,7968
253.778,7429
254.164,7624
254.551,7638
254.937,8024
255.324,9308
255.710,8347
256.097,7052
256.484,8401
256.870,7816
257.257,7979
257.644,8064
258.031,8095
258.418,7616
258.805,7738
259.192,7521
259.579,8523
259.967,8578
260.354,7975
260.741,8487
261.129,6909
261.516,8114
261.904,9423
262.291,7860
262.679,8145
263.066,7715
263.454,7700
263.842,8035
264.230,8514
264.618,7550
265.005,8651
265.393,8554
265.781,8411
266.170,8459
266.558,7912
266.946,7932
267.334,8170
267.722,8293
268.111,8288
268.499,8602
268.888,8045
269.276,7875
269.665,7691
270.053,6548
270.442,7979
270.831,7919
271.220,8154
271.608,8113
271.997,8416
272.386,8786
272.775,8480
273.164,6927
273.553,7726
273.943,7643
274.332,7492
274.721,8402
275.110,7568
275.500,6838
275.889,8392
276.279,8014
276.668,7421
277.058,7697
277.447,7953
277.837,6931
278.227,7758
278.617,8041
279.006,8376
279.396,8240
279.786,7840
280.176,8203
280.566,8014
280.956,8018
281.347,8339
281.737,7358
282.127,8026
282.517,8184
282.908,7500
283.298,8950
283.689,7667
284.079,7832
284.470,7971
284.861,7991
285.251,8115
285.642,8460
286.033,8090
286.424,8169
286.815,7991
287.205,8464
287.596,8451
287.988,8284
288.379,8100
288.770,7768
289.161,8091
289.552,7632
289.944,8409
290.335,8114
290.727,8124
291.118,7387
291.510,8372
291.901,8186
292.293,8807
292.685,8578
293.076,8705
293.468,7003
293.860,8659
294.252,8009
294.644,8236
295.036,8276
295.428,8647
295.820,7838
296.212,7676
296.605,8260
296.997,7829
297.389,7940
297.782,7747
298.174,7603
298.566,8283
298.959,8048
299.352,7783
299.744,7566
300.137,8609
300.530,8049
300.923,7331
301.315,8157
301.708,7739
302.101,8698
302.494,7203
302.887,7905
303.281,8344
303.674,8464
304.067,7956
304.460,7815
304.854,7863
305.247,9286
305.640,8216
306.034,7835
306.427,8134
306.821,8772
307.215,8084
307.608,8471
308.002,8322
308.396,8461
308.790,7516
309.184,8491
309.578,8125
309.972,9035
310.366,7888
310.760,8076
311.154,8531
311.548,8299
311.943,7996
312.337,8069
312.731,8303
313.126,8127
313.520,8334
313.915,8915
314.309,8202
314.704,7171
315.099,7560
315.494,8867
315.888,7908
316.283,8000
316.678,7716
317.073,7161
317.468,8779
317.863,8424
318.258,7880
318.653,7296
319.049,8341
319.444,8513
319.839,7417
320.235,16521
320.630,8267
321.026,8398
321.421,7849
321.817,7445
322.212,8404
322.608,7806
323.004,8333
323.399,8538
323.795,8639
324.191,7346
324.587,7744
324.983,7765
325.379,8059
325.775,7856
326.171,8162
326.568,7725
326.964,8032
327.360,8433
327.757,8673
328.153,8245
328.549,7978
328.946,7604
329.343,8444
329.739,8096
330.136,9017
330.533,8446
330.929,8220
331.326,8539
331.723,7472
332.120,8550
332.517,8302
332.914,7632
333.311,7936
333.708,10493
334.105,8564
334.503,8645
334.900,8054
335.297,8169
335.695,8059
336.092,8774
336.490,8611
336.887,8198
337.285,8592
337.682,8432
338.080,8141
338.478,7235
338.876,7779
339.273,8000
339.671,7787
340.069,7772
340.467,8345
340.865,7864
341.263,8559
341.662,7398
342.060,7771
342.458,7879
342.856,8716
343.255,8584
343.653,8308
344.052,8818
344.450,7684
344.849,8258
345.247,8352
345.646,8926
346.045,8456
346.443,8502
346.842,8192
347.241,7705
347.640,7851
348.039,7462
348.438,8391
348.837,7760
349.236,7975
349.635,7590
350.035,8201
350.434,8431
350.833,9252
351.233,7418
351.632,8148
352.032,8238
352.431,8065
352.831,8146
353.230,8279
353.630,7462
354.030,8329
354.430,8602
354.829,8096
355.229,8354
355.629,7899
356.029,7592
356.429,8036
356.829,8496
357.230,8786
357.630,8833
358.030,8528
358.430,8546
358.831,7997
359.231,7997
359.631,7871
360.032,8514
360.432,7421
360.833,7219
361.234,7782
361.634,7930
362.035,8052
362.436,9475
362.837,8447
363.238,8476
363.639,7515
364.040,9368
364.441,8290
364.842,9293
365.243,8334
365.644,7546
366.045,8224
366.447,7722
366.848,8226
367.250,7813
367.651,8833
368.053,8536
368.454,8533
368.856,7149
369.257,8200
369.659,8429
370.061,7878
370.463,7830
370.864,7498
371.266,7971
371.668,7820
372.070,8214
372.472,7348
372.874,8370
373.277,7498
373.679,8169
374.081,8593
374.483,8173
374.886,8608
375.288,7996
375.691,8373
376.093,8099
376.496,8376
376.898,9122
377.301,8330
377.704,8505
378.106,8450
378.509,7961
378.912,8515
379.315,7870
379.718,7357
380.121,8983
380.524,8052
380.927,8164
381.330,8592
381.734,8249
382.137,7585
382.540,7483
382.943,8699
383.347,8595
383.750,8028
384.154,8447
384.557,8540
384.961,8256
385.365,8097
385.768,7545
386.172,8017
386.576,7970
386.980,7360
387.384,7954
387.788,7529
388.192,8298
388.596,7688
389.000,8602
389.404,8336
389.808,9237
390.212,8428
390.617,8723
391.021,7345
391.425,8320
391.830,8671
392.234,8034
392.639,7245
393.043,7951
393.448,7811
393.853,7575
394.258,8133
394.662,8680
395.067,8479
395.472,7513
395.877,8457
396.282,8026
396.687,7370
397.092,7850
397.497,7181
397.902,8291
398.308,8782
398.713,8192
399.118,7829
399.524,7626
399.929,7706
400.335,7683
400.740,7763
401.146,7561
401.551,8493
401.957,8012
402.363,8113
402.768,8056
403.174,8013
403.580,8023
403.986,7810
404.392,8231
404.798,8544
405.204,7756
405.610,7583
406.016,8558
406.423,7556
406.829,9694
407.235,7861
407.642,8616
408.048,8764
408.454,8634
408.861,8173
409.267,8452
409.674,8159
410.081,8457
410.487,7861
410.894,8468
411.301,8212
411.708,8766
412.115,8086
412.522,8232
412.929,8736
413.336,9019
413.743,8060
414.150,8858
414.557,8692
414.964,7911
415.372,7585
415.779,8748
416.186,8768
416.594,8139
417.001,8540
417.409,8491
417.816,8719
418.224,9137
418.632,9094
419.039,8734
419.447,8223
419.855,8917
420.263,8597
420.671,8077
421.079,8648
421.487,8135
421.895,9122
422.303,8576
422.711,11567
423.119,8766
423.527,10014
423.936,8641
424.344,9197
424.753,8479
425.161,9679
425.569,8422
425.978,8950
426.387,9427
426.795,8757
427.204,9229
427.613,9079
428.021,8810
428.430,9592
428.839,8925
429.248,8280
429.657,7570
430.066,8886
430.475,7958
430.884,9574
431.293,9289
431.703,8746
432.112,9186
432.521,9032
432.931,9086
433.340,8909
433.749,9235
434.159,10188
434.568,9672
434.978,9326
435.388,9988
435.797,9093
436.207,9631
436.617,8954
437.027,9224
437.437,9670
437.846,8936
438.256,8889
438.667,9334
439.077,9373
439.487,8727
439.897,9661
440.307,8689
440.717,8379
441.128,8900
441.538,9306
441.948,9405
442.359,8941
442.769,9635
443.180,9344
443.590,9103
444.001,10306
444.412,10247
444.823,8571
445.233,9563
445.644,10202
446.055,9783
446.466,9416
446.877,9485
447.288,9127
447.699,9791
448.110,9286
448.521,9610
448.933,9692
449.344,10139
449.755,9675
450.166,9480
450.578,9046
450.989,9222
451.401,9112
451.812,8846
452.224,9949
452.636,10013
453.047,9169
453.459,9796
453.871,9203
454.283,9773
454.694,9842
455.106,9234
455.518,9368
455.930,8790
456.342,8816
456.754,9128
457.167,10037
457.579,9461
457.991,8952
458.403,8734
458.816,9216
459.228,9833
459.640,9551
460.053,9220
460.465,9795
460.878,9552
461.291,9073
461.703,9669
462.116,10669
462.529,9995
462.942,9833
463.354,9417
463.767,9979
464.180,9221
464.593,9681
465.006,9667
465.419,9608
465.833,9370
466.246,10173
466.659,9581
467.072,9948
467.486,9360
467.899,9497
468.312,9717
468.726,9506
469.139,8833
469.553,9315
469.966,9026
470.380,8655
470.794,9206
471.207,9580
471.621,9208
472.035,9675
472.449,8868
472.863,10256
473.277,9615
473.691,9703
474.105,9170
474.519,15549
474.933,9440
475.347,10150
475.762,9282
476.176,9515
476.590,9675
477.005,8589
477.419,8816
477.834,8513
478.248,8481
478.663,8739
479.077,9092
479.492,9001
479.907,9113
480.321,9017
480.736,9264
481.151,8901
481.566,9169
481.981,8984
482.396,8989
482.811,9202
483.226,8498
483.641,8175
484.056,7478
484.471,8526
484.887,8494
485.302,8274
485.717,9210
486.133,9536
486.548,8318
486.964,9243
487.379,8400
487.795,8718
488.210,8534
488.626,8896
489.042,8219
489.457,9448
489.873,8339
490.289,8563
490.705,8900
491.121,8551
491.537,9262
491.953,8113
492.369,8792
492.785,8644
493.201,8835
493.617,8042
494.034,8276
494.450,8103
494.866,8694
495.283,8734
495.699,9440
496.116,9509
496.532,8865
496.949,8149
497.365,8674
497.782,8609
498.199,8502
498.616,9104
499.032,7860
499.449,9326
499.866,8171
500.283,9401
500.700,8550
501.117,7715
501.534,7711
501.951,7792
502.368,8566
502.786,8085
503.203,9410
503.620,8009
504.038,7622
504.455,8320
504.872,8193
505.290,7588
505.707,8060
506.125,8480
506.542,8648
506.960,7864
507.378,8550
507.796,8190
508.213,7668
508.631,8868
509.049,8328
509.467,8686
509.885,8601
510.303,7418
510.721,9351
511.139,8037
511.557,8302
511.975,8795
512.394,8387
512.812,9202
513.230,9198
513.649,9446
514.067,8156
514.486,8762
514.904,8378
515.323,8404
515.741,7953
516.160,7790
516.579,7694
516.997,9042
517.416,7953
517.835,8344
518.254,8035
518.673,7891
519.092,8071
519.511,8602
519.930,8384
520.349,8307
520.768,8527
521.187,8924
521.606,8194
522.025,8969
522.445,8152
522.864,7993
523.284,7928
523.703,8783
524.122,8369
524.542,8104
524.961,7904
525.381,7594
525.801,8177
526.220,8512
526.640,9199
527.060,8688
527.480,8465
527.900,8544
528.320,8551
528.740,8144
529.160,8458
529.580,9153
530.000,8281
530.420,7492
530.840,8353
531.260,8083
531.681,7590
532.101,8000
532.521,8162
532.942,8383
533.362,8782
533.783,8404
534.203,8127
534.624,8579
535.044,8652
535.465,7914
535.886,7857
536.306,7569
536.727,8226
537.148,8174
537.569,8363
537.990,8302
538.411,8206
538.832,7674
539.253,8096
539.674,11488
540.095,8066
540.516,8129
540.938,8939
541.359,8215
541.780,8274
542.201,8234
542.623,8469
543.044,8966
543.466,7860
543.887,8349
544.309,7763
544.731,8562
545.152,8335
545.574,8907
545.996,7811
546.417,8829
546.839,8055
547.261,8643
547.683,7637
548.105,8273
548.527,7697
548.949,8140
549.371,8555
549.793,7344
550.215,8422
550.638,8147
551.060,9018
551.482,7366
551.905,8528
552.327,8350
552.749,8318
553.172,8386
553.594,8225
554.017,7780
554.440,8378
554.862,7639
555.285,8551
555.708,8415
556.130,7994
556.553,8680
556.976,7854
557.399,7643
557.822,8694
558.245,7411
558.668,8413
559.091,7590
559.514,7588
559.937,8586
560.361,8365
560.784,8049
561.207,7997
561.630,8555
562.054,8502
562.477,7451
562.901,8528
563.324,8903
563.748,8872
564.171,8325
564.595,8213
565.019,8049
565.442,8106
565.866,7933
566.290,8134
566.714,8207
567.138,7725
567.561,8134
567.985,8150
568.409,8864
568.833,7736
569.258,7911
569.682,8702
570.106,8359
570.530,8822
570.954,7540
571.379,8164
571.803,8660
572.227,8542
572.652,7513
573.076,9899
573.501,7895
573.925,7987
574.350,7987
574.775,8373
575.199,8768
575.624,7905
576.049,8692
576.474,9190
576.898,8651
577.323,8992
577.748,8378
578.173,8905
578.598,8681
579.023,8680
579.448,7829
579.873,8146
580.299,8288
580.724,8115
581.149,8441
581.574,9356
582.000,8994
582.425,8518
582.851,8765
583.276,8562
583.702,8429
584.127,8331
584.553,8811
584.978,8130
585.404,8029
585.830,8739
586.255,8636
586.681,8450
587.107,7910
587.533,8275
587.959,8891
588.385,8800
588.811,8473
589.237,7914
589.663,9872
590.089,8475
590.515,8866
590.942,8114
591.368,8200
591.794,7716
592.220,8395
592.647,7967
593.073,8516
593.500,8785
593.926,8191
594.353,8551
594.779,8907
595.206,8267
595.633,8141
596.059,7961
596.486,8396
596.913,8480
597.340,8471
597.766,8182
598.193,8154
598.620,8584
599.047,8365
599.474,8241
599.901,7904
600.329,8624
600.756,8790
601.183,8561
601.610,8796
602.037,8328
602.465,8485
602.892,8933
603.319,8047
603.747,7956
604.174,8936
604.602,8753
605.029,8369
605.457,8105
605.885,7698
606.312,7968
606.740,8042
607.168,8102
607.596,7644
608.023,8059
608.451,8271
608.879,8175
609.307,8643
609.735,9019
610.163,8114
610.591,9251
611.019,8543
611.448,9190
611.876,8794
612.304,8243
612.732,7878
613.161,8299
613.589,8188
614.017,7862
614.446,8097
614.874,7908
615.303,8187
615.731,8270
616.160,7967
616.589,8356
617.017,7697
617.446,8326
617.875,7848
618.304,8049
618.732,9154
619.161,8944
619.590,8015
620.019,8921
620.448,7886
620.877,8283
621.306,8059
621.735,7486
622.164,7690
622.594,8219
623.023,8705
623.452,7802
623.881,7863
624.311,8201
624.740,8085
625.170,7705
625.599,11506
626.029,8447
626.458,7985
626.888,8745
627.317,8137
627.747,8904
628.177,8124
628.607,8105
629.036,7642
629.466,7666
629.896,8010
630.326,7695
630.756,7784
631.186,7828
631.616,7983
632.046,8296
632.476,8260
632.906,7979
633.336,8462
633.766,7468
634.197,8493
634.627,6946
635.057,7754
635.488,7964
635.918,7769
636.349,7596
636.779,8000
637.210,7616
637.640,7674
638.071,7979
638.501,8379
638.932,8659
639.363,8296
639.794,8076
640.224,8118
640.655,7891
641.086,7442
641.517,8242
641.948,8089
642.379,7868
642.810,8115
643.241,7941
643.672,9293
644.103,8685
644.534,8272
644.966,8670
645.397,7360
645.828,8162
646.259,7695
646.691,8636
647.122,8103
647.554,7955
647.985,7955
648.417,8546
648.848,8755
649.280,8435
649.712,8046
650.143,8799
650.575,7340
651.007,8654
651.438,8278
651.870,8028
652.302,8108
652.734,8249
653.166,7860
653.598,8487
654.030,8366
654.462,8259
654.894,8230
655.326,7932
655.758,8280
656.191,8299
656.623,7894
657.055,7892
657.487,7777
657.920,8011
658.352,8414
658.785,8745
659.217,8120
659.650,8674
660.082,8263
660.515,8197
660.947,7916
661.380,8043
661.813,8237
662.246,8750
662.678,6934
663.111,8546
663.544,7686
663.977,8588
664.410,7851
664.843,7655
665.276,8987
665.709,8624
666.142,7649
666.575,8328
667.008,8062
667.441,8247
667.875,8327
668.308,7562
668.741,8482
669.174,8578
669.608,8626
670.041,9562
670.475,8566
670.908,8628
671.342,7981
671.775,8869
672.209,7897
672.642,7753
673.076,8869
673.510,7929
673.943,8134
674.377,9055
674.811,8965
675.245,7920
675.679,7659
676.113,7893
676.547,8841
676.981,7748
677.415,9096
677.849,8865
678.283,8113
678.717,8086
679.151,7847
679.585,7612
680.020,7908
680.454,7610
680.888,7895
681.323,8153
681.757,8370
682.191,7979
682.626,8861
683.060,8547
683.495,8008
683.930,8625
684.364,8933
684.799,7981
685.234,8252
685.668,8221
686.103,8131
686.538,8498
686.973,8422
687.408,8356
687.842,8168
688.277,8745
688.712,9323
689.147,7662
689.582,8257
690.018,8022
690.453,7677
690.888,7728
691.323,8119
691.758,8480
692.193,7967
692.629,8178
693.064,8304
693.500,9022
693.935,7357
694.370,8196
694.806,8979
695.241,8314
695.677,8801
696.112,10517
696.548,9787
696.984,9933
697.419,8480
697.855,9470
698.291,9081
698.727,8716
699.163,8061
699.598,8687
700.034,8165
700.470,8528
700.906,8750
701.342,8316
701.778,7620
702.214,9063
702.651,8659
703.087,7760
703.523,8636
703.959,8510
704.395,7666
704.832,7631
705.268,7891
705.704,7632
706.141,8514
706.577,8002
707.014,8517
707.450,7982
707.887,7576
708.323,7968
708.760,8521
709.197,8041
709.633,8437
710.070,7922
710.507,8207
710.943,8264
711.380,8372
711.817,8268
712.254,8320
712.691,8576
713.128,8160
713.565,8128
714.002,8392
714.439,7920
714.876,8002
715.313,7655
715.750,8227
716.188,8452
716.625,8127
717.062,7806
717.499,8382
717.937,8938
718.374,8693
718.812,7976
719.249,8074
719.686,8404
720.124,7893
720.562,7730
720.999,8014
721.437,8398
721.874,8001
722.312,9288
722.750,8079
723.188,7941
723.625,9134
724.063,7377
724.501,8330
724.939,8030
725.377,8446
725.815,8278
726.253,8513
726.691,9006
727.129,8843
727.567,8246
728.005,8668
728.443,8073
728.881,8294
729.320,8193
729.758,8565
730.196,8322
730.634,8383
731.073,7939
731.511,8258
731.950,8877
732.388,7696
732.827,8259
733.265,8780
733.704,7911
734.142,8859
734.581,8238
735.020,8029
735.458,8736
735.897,7488
736.336,7597
736.775,9035
737.213,9631
737.652,8481
738.091,9395
738.530,9546
738.969,9164
739.408,8698
739.847,8559
740.286,9316
740.725,8470
741.164,9237
741.604,7580
742.043,7822
742.482,9142
742.921,8520
743.360,8802
743.800,8134
744.239,9064
744.679,7872
745.118,8456
745.557,8565
745.997,8213
746.436,8116
746.876,8680
747.316,8616
747.755,9151
748.195,8529
748.635,9433
749.074,8310
749.514,9313
749.954,12117
750.394,12137
750.833,11962
751.273,10839
751.713,9187
752.153,8941
752.593,9095
753.033,8309
753.473,8541
753.913,7639
754.353,7978
754.794,8915
755.234,8611
755.674,9031
756.114,8322
756.555,8212
756.995,8630
757.435,8231
757.875,9377
758.316,8149
758.756,8522
759.197,8678
759.637,7851
760.078,8444
760.518,7965
760.959,8590
761.400,8017
761.840,8227
762.281,8303
762.722,10685
763.162,14106
763.603,14045
764.044,13423
764.485,11354
764.926,10236
765.367,8277
765.807,8430
766.248,8498
766.690,8062
767.130,8608
767.572,8375
768.013,9066
768.454,7704
768.895,8416
769.336,7912
769.777,9161
770.219,7876
770.660,7799
771.101,8471
771.543,8831
771.984,11499
772.425,11902
772.867,12306
773.308,10033
773.750,8527
774.191,7961
774.633,7838
775.074,8095
775.516,8247
775.958,7717
776.399,8042
776.841,7922
777.283,8437
777.725,7629
778.167,8434
778.608,8494
779.050,8512
779.492,8150
779.934,8956
780.376,8846
780.818,7980
781.260,8683
781.702,8581
782.144,9409
782.586,8464
783.028,8368
783.471,8461
783.913,9521
784.355,8100
784.797,7995
785.240,8104
785.682,9090
786.124,8930
786.567,8799
787.009,8335
787.452,8105
787.894,8248
788.337,9288
788.779,8815
789.222,8213
789.664,8569
790.107,7987
790.550,9038
790.992,9777
791.435,8181
791.878,8486
792.321,8232
792.763,8524
793.206,8622
793.649,9010
794.092,8668
794.535,9622
794.978,9866
795.421,8757
795.864,8194
796.307,7766
796.750,8186
797.193,7952
797.636,8697
798.080,8920
798.523,9133
798.966,8158
799.409,8830
799.852,8842
800.296,9782
800.739,9917
801.182,8870
801.626,8875
802.069,8480
802.513,8087
802.956,8402
803.400,7947
803.843,9253
804.287,8680
804.731,8057
805.174,8996
805.618,8600
806.062,8433
806.505,8471
806.949,8198
807.393,8952
807.837,9315
808.281,8510
808.724,8136
809.168,9095
809.612,9995
810.056,9352
810.500,10152
810.944,11041
811.388,12038
811.832,11562
812.276,9290
812.721,9977
813.165,8926
813.609,8973
814.053,8492
814.497,8368
814.942,8763
815.386,7994
815.830,8066
816.275,8388
816.719,8450
817.163,8410
817.608,8348
818.052,8944
818.497,9286
818.941,9308
819.386,8889
819.831,9079
820.275,9575
820.720,9494
821.164,9573
821.609,9194
822.054,10985
822.499,19123
822.943,24866
823.388,21580
823.833,17778
824.278,13040
824.723,10479
825.168,9692
825.613,10820
826.058,11846
826.503,12132
826.948,12318
827.393,16055
827.838,18415
828.283,15333
828.728,13559
829.173,11364
829.618,9535
830.064,10013
830.509,8552
830.954,8891
831.399,9080
831.845,9412
832.290,8606
832.736,9987
833.181,8626
833.626,9919
834.072,10679
834.517,11273
834.963,10998
835.408,10269
835.854,9323
836.300,8827
836.745,9571
837.191,9366
837.637,9079
838.082,9268
838.528,8493
838.974,8350
839.420,9636
839.865,15107
840.311,11614
840.757,10318
841.203,10634
841.649,9971
842.095,9209
842.541,10412
842.987,9727
843.433,9225
843.879,8995
844.325,8660
844.771,7731
845.217,9012
845.664,8964
846.110,8432
846.556,8739
847.002,8238
847.448,8250
847.895,7889
848.341,8801
848.787,8168
849.234,8371
849.680,8629
850.127,7973
850.573,8232
851.020,8701
851.466,8885
851.913,9172
852.359,9325
852.806,9582
853.252,8447
853.699,8360
854.146,8798
854.592,8998
855.039,8740
855.486,8174
855.933,8157
856.379,8737
856.826,7242
857.273,7883
857.720,8519
858.167,8912
858.614,8685
859.061,8300
859.508,8801
859.955,9111
860.402,9025
860.849,8748
861.296,9241
861.743,8640
862.190,8156
862.637,8468
863.084,8056
863.531,8440
863.979,9210
864.426,8481
864.873,8498
865.321,8055
865.768,8599
866.215,8505
866.663,8037
867.110,8652
867.557,8149
868.005,8913
868.452,8305
868.900,8669
869.347,8632
869.795,8034
870.242,7863
870.690,7468
871.138,8091
871.585,8173
872.033,7866
872.481,8185
872.928,8776
873.376,8453
873.824,8770
874.272,9208
874.720,9267
875.167,8442
875.615,8526
876.063,8308
876.511,8489
876.959,8656
877.407,8382
877.855,8689
878.303,8767
878.751,8864
879.199,7815
879.647,7895
880.095,8898
880.543,9010
880.992,10438
881.440,14607
881.888,15151
882.336,12855
882.784,11705
883.233,9552
883.681,9204
884.129,8972
884.578,9149
885.026,8452
885.474,9019
885.923,9217
886.371,9011
886.820,8622
887.268,8429
887.717,8550
888.165,7865
888.614,9138
889.062,8180
889.511,9079
889.960,7899
890.408,8509
890.857,8531
891.306,8979
891.754,7793
892.203,8665
892.652,8881
893.101,8919
893.549,8701
893.998,10021
894.447,10471
894.896,13161
895.345,12956
895.794,12133
896.243,10021
896.692,9798
897.141,8916
897.590,8775
898.039,9233
898.488,9687
898.937,9630
899.386,8358
899.835,9373
900.284,8698
900.734,8954
901.183,8325
901.632,8539
902.081,8441
902.530,8826
902.980,8976
903.429,10034
903.878,9639
904.328,10754
904.777,10208
905.227,9757
905.676,10178
906.125,8407
906.575,8888
907.024,9637
907.474,7538
907.923,8795
908.373,8836
908.823,8734
909.272,8337
909.722,8901
910.171,8792
910.621,9633
911.071,9368
911.520,10398
911.970,12628
912.420,12323
912.870,11269
913.319,10091
913.769,9061
914.219,9745
914.669,10094
915.119,12379
915.569,17745
916.019,24431
916.469,22371
916.919,17787
917.369,13578
917.819,11139
918.269,10298
918.719,9238
919.169,9302
919.619,8432
920.069,9484
920.519,9004
920.969,9104
921.419,11108
921.870,9126
922.320,8820
922.770,9662
923.220,9486
923.671,8769
924.121,9375
924.571,8670
925.021,8075
925.472,7476
925.922,8526
926.373,8493
926.823,9145
927.273,8937
927.724,8717
928.174,9242
928.625,8727
929.076,7994
929.526,8832
929.977,9078
930.427,8824
930.878,8642
931.328,8393
931.779,7725
932.230,8185
932.680,8674
933.131,8140
933.582,8694
934.033,8099
934.483,8177
934.934,8457
935.385,8417
935.836,9225
936.287,8958
936.737,7973
937.188,8006
937.639,7855
938.090,8532
938.541,8500
938.992,8445
939.443,7494
939.894,7923
940.345,8717
940.796,8217
941.247,8454
941.698,9157
942.149,7981
942.601,8169
943.052,9115
943.503,8010
943.954,8352
944.405,7828
944.856,8127
945.308,8434
945.759,8341
946.210,8188
946.661,7534
947.113,8853
947.564,8311
948.015,8885
948.467,8386
948.918,7841
949.370,7452
949.821,8093
950.272,8073
950.724,8294
951.175,8913
951.627,9300
952.078,8583
952.530,7851
952.981,7411
953.433,8145
953.885,7898
954.336,7595
954.788,8343
955.240,7645
955.691,8036
956.143,8255
956.595,8326
957.046,8012
957.498,8673
957.950,7920
958.402,8183
958.853,8442
959.305,8861
959.757,7602
960.209,9358
960.661,7868
961.113,8269
961.564,9367
962.016,8117
962.468,7304
962.920,7857
963.372,9155
963.824,8447
964.276,8778
964.728,8412
965.180,9565
965.632,7941
966.084,8733
966.536,8786
966.989,9817
967.441,8626
967.893,9020
968.345,8754
968.797,8844
969.249,8621
969.702,7853
970.154,8123
970.606,8389
971.058,8498
971.511,8308
971.963,8371
972.415,8524
972.867,8245
973.320,9182
973.772,8346
974.225,9222
974.677,9540
975.129,8087
975.582,9575
976.034,9058
976.487,10114
976.939,9605
977.392,9849
977.844,10653
978.297,11291
978.749,15167
979.202,25495
979.654,33640
980.107,31333
980.560,23647
981.012,18935
981.465,15711
981.918,12911
982.370,11731
982.823,10826
983.276,9734
983.728,9875
984.181,9680
984.634,10099
985.087,8787
985.539,9203
985.992,9258
986.445,9089
986.898,9480
987.351,9464
987.804,8858
988.256,8940
988.709,9506
989.162,9114
989.615,10050
990.068,9219
990.521,9268
990.974,9054
991.427,9342
991.880,9775
992.333,9386
992.786,9561
993.239,9619
993.692,9371
994.145,9026
994.598,8899
995.052,8153
995.505,9062
995.958,8795
996.411,8548
996.864,9524
997.317,8692
997.771,8880
998.224,8289
998.677,8468
999.130,7716
999.583,9104
1000.037,8610
1000.490,9021
1000.943,7736
1001.397,8588
1001.850,7996
1002.303,7799
1002.757,8702
1003.210,8546
1003.663,8640
1004.117,8356
1004.570,8602
1005.024,9343
1005.477,8187
1005.931,8511
1006.384,8241
1006.838,8454
1007.291,8203
1007.745,8919
1008.198,7893
1008.652,8066
1009.105,8405
1009.559,8982
1010.012,7203
1010.466,8026
1010.920,8507
1011.373,8631
1011.827,8434
1012.280,8014
1012.734,8544
1013.188,8922
1013.641,8308
1014.095,7980
1014.549,8665
1015.003,8315
1015.456,9493
1015.910,8124
1016.364,9208
1016.818,8201
1017.271,9116
1017.725,8544
1018.179,8964
1018.633,7235
1019.087,8781
1019.541,8030
1019.995,8749
1020.448,8806
1020.902,9092
1021.356,9315
1021.810,8605
1022.264,8959
1022.718,7904
1023.172,8042
1023.626,8583
1024.080,8084
1024.534,8679
1024.988,8856
1025.442,7587
1025.896,8274
1026.350,8321
1026.804,8680
1027.258,9214
1027.712,7576
1028.167,7809
1028.621,8698
1029.075,7961
1029.529,8712
1029.983,8682
1030.437,8644
1030.891,8344
1031.346,8245
1031.800,8202
1032.254,7930
1032.708,7977
1033.162,7966
1033.617,7903
1034.071,7912
1034.525,9307
1034.979,7665
1035.434,8662
1035.888,7942
1036.342,9290
1036.797,8016
1037.251,8250
1037.705,8105
1038.160,7676
1038.614,8379
1039.068,7662
1039.523,7965
1039.977,8259
1040.432,7989
1040.886,7714
1041.341,7423
1041.795,7957
1042.249,8216
1042.704,8133
1043.158,8037
1043.613,8116
1044.067,8758
1044.522,8096
1044.976,7857
1045.431,8365
1045.885,8225
1046.340,7928
1046.795,7521
1047.249,7378
1047.704,8393
1048.158,7764
1048.613,8062
1049.068,7918
1049.522,8574
1049.977,8423
1050.432,7731
1050.886,8555
1051.341,8556
1051.796,7906
1052.250,8746
1052.705,7664
1053.160,8122
1053.614,8475
1054.069,8410
1054.524,8131
1054.979,7893
1055.433,7776
1055.888,8330
1056.343,7658
1056.798,7882
1057.252,8234
1057.707,7426
1058.162,7796
1058.617,8040
1059.072,7699
1059.526,7945
1059.981,7752
1060.436,8120
1060.891,7789
1061.346,7874
1061.801,8216
1062.256,7921
1062.711,7451
1063.166,8012
1063.620,7666
1064.075,6971
1064.530,7516
1064.985,7827
1065.440,7018
1065.895,7274
1066.350,7735
1066.805,7634
1067.260,7298
1067.715,7358
1068.170,7803
1068.625,7149
1069.080,7324
1069.535,6712
1069.990,6944
1070.445,6610
1070.901,6818
1071.356,6381
1071.811,6164
1072.266,6510
1072.721,6475
1073.176,6176
1073.631,6213
1074.086,6085
1074.541,5929
1074.996,6225
1075.452,5825
1075.907,5279
1076.362,5844
1076.817,5492
1077.272,5325
1077.727,5370
1078.183,4740
